Path difference [nm]	Intensity [a.u.]
0	100
48	100
96	100
144	100
192	100
240	100
288	100
336	100
384	100
432	100
480	100
528	100
576	100
624	100
672	100
720	100
768	100
816	100
864	100
912	100
960	100
1008	99.6033
1056	99.9367
1104	98.06
1152	99.7767
1200	100
1248	100
1296	100
1344	100
1392	100
1440	100
1488	100
1536	100
1584	100
1632	100
1680	100
1728	97.3167
1776	100
1824	98.1667
1872	96.26
1920	99.6433
1968	100
2016	100
2064	100
2112	100
2160	100
2208	100
2256	100
2304	100
2352	100
2400	100
2448	94.46
2496	97.6567
2544	100
2592	100
2640	98.6633
2688	100
2736	100
2784	100
2832	100
2880	100
2928	100
2976	100
3024	99.65
3072	97.8367
3120	100
3168	-0.2567
3216	48.9767
3264	-41.2133
3312	13.3267
3360	-26.8967
3408	0.1967
3456	3.62
3504	6.0767
3552	-24.0233
3600	-29.58
3648	29.3467
3696	-25.5633
3744	10.1
3792	-4.63
3840	24.6867
3888	63.28
3936	79.15
3984	95.6233
4032	99.7067
4080	100
4128	96.4933
4176	92.32
4224	79.72
4272	73.3667
4320	67.4167
4368	59.3533
4416	59.3467
4464	65.12
4512	68.5667
4560	79.5733
4608	91.7633
4656	95.27
4704	99.5233
4752	100
4800	97.4933
4848	91.1667
4896	80.8
4944	66.42
4992	60.77
5040	57.8433
5088	57.0433
5136	-0.32
5184	9.1833
5232	27.66
5280	35.39
5328	-4.9467
5376	-20.9433
5424	-9.6133
5472	-0.4767
5520	5.39
5568	-14.1467
5616	-7.0567
5664	17.2067
5712	1.6933
5760	13.3833
5808	44.3367
5856	54.66
5904	59.04
5952	57.5467
6000	55.53
6048	49.7367
6096	42.5867
6144	38.7233
6192	36.2567
6240	33.5
6288	33.7533
6336	37.3
6384	43.7367
6432	51.4767
6480	56.3967
6528	58.9467
6576	60.0267
6624	59.0367
6672	53.1767
6720	49.6233
6768	45.5733
6816	38.1
6864	32.2467
6912	32
6960	33.1167
7008	37.48
7056	45.3433
7104	51.5067
7152	54.25
7200	58.72
7248	60.29
7296	57.6333
7344	52.6567
7392	45.0467
7440	38.11
7488	34.14
7536	32.2033
7584	31.3833
7632	34.8167
7680	37.33
7728	43.96
7776	54.4267
7824	59.9533
7872	61.3833
7920	60.9933
7968	58.3467
8016	47.9567
8064	47.5233
8112	43.28
8160	36.8233
8208	30.7433
8256	31.37
8304	33.67
8352	41.0967
8400	48.14
8448	51.46
8496	56.06
8544	59.71
8592	60.5233
8640	56.5033
8688	51.6267
8736	44.5733
8784	34.05
8832	34.3067
8880	30.9967
8928	30.2567
8976	36.34
9024	42.8267
9072	48.0167
9120	53.9033
9168	61.7067
9216	61.86
9264	62.2267
9312	58.6633
9360	49.2233
9408	42.0733
9456	38.4133
9504	36.04
9552	29.7933
9600	30.4733
9648	32.51
9696	39.63
9744	53.6867
9792	59.91
9840	61.02
9888	63.23
9936	60.9967
9984	57.51
10032	53.13
10080	47.4733
10128	33.59
10176	29.6767
10224	28.6167
10272	30.85
10320	37.21
10368	39.31
10416	45.4467
10464	53.15
10512	60.93
10560	63.2967
10608	62.1433
10656	56.8333
10704	47.9833
10752	45.4467
10800	37.4233
10848	32.19
10896	28.4567
10944	30.0667
10992	34.51
11040	40.2767
11088	53.6667
11136	55.2533
11184	59.6067
11232	63.96
11280	61.62
11328	54.9867
11376	50.2867
11424	43.0867
11472	17.0733
11520	8.9133
11568	9.1467
11616	18.32
11664	-1.9867
11712	2.0767
11760	1.4367
11808	-0.9933
11856	0.2667
11904	0.8767
11952	2.4933
12000	-1.23
12048	-28.6567
12096	3.88
12144	-1.1033
12192	16.8733
12240	-12.65
12288	22.8933
12336	42.1967
12384	56.9633
12432	62.66
12480	64.4467
12528	64.1267
12576	59.66
12624	49.6167
12672	39.8867
12720	34.2067
12768	27.4733
12816	27.29
12864	28.48
12912	30.0533
12960	41.27
13008	52.93
13056	57.1933
13104	61.46
13152	65.1267
13200	61.8833
13248	56.2333
13296	52.2033
13344	41.5133
13392	30.11
13440	28.89
13488	27.01
13536	28.28
13584	36.6867
13632	42.09
13680	46.0833
13728	59.0867
13776	63.6767
13824	65.8233
13872	65.2067
13920	59.1933
13968	51.43
14016	44.07
14064	35.25
14112	28.38
14160	26.0667
14208	26.7133
14256	29.3867
14304	38.35
14352	50.68
14400	58.37
14448	62.21
14496	65.5867
14544	63.4833
14592	59.4633
14640	48.9467
14688	40.5833
14736	31.99
14784	27.9433
14832	25.5767
14880	27.4633
14928	38.78
14976	43.5733
15024	48.9133
15072	57.4467
15120	65.77
15168	66.1133
15216	64.9367
15264	58.05
15312	49.7467
15360	39.5
15408	37.0433
15456	29.2567
15504	25.1567
15552	27.17
15600	34.2933
15648	49.53
15696	55.3733
15744	60.4567
15792	63.0767
15840	67.2433
15888	62.3133
15936	59.3067
15984	55.1067
16032	41.5967
16080	29.58
16128	24.5833
16176	24.1733
16224	32.6167
16272	46.64
16320	46.3933
16368	47.8967
16416	54.3533
16464	66.7733
16512	67.7033
16560	63.11
16608	50.15
16656	43.6333
16704	39.3167
16752	34.1
16800	28.41
16848	25.1033
16896	29.04
16944	35.7133
16992	49.01
17040	60.78
17088	62.68
17136	67.9933
17184	67.9767
17232	61.88
17280	54.2233
17328	43.8467
17376	36.7267
17424	25.31
17472	23.64
17520	23.7433
17568	30.7333
17616	40.7033
17664	50.9733
17712	55.76
17760	66.5933
17808	69.2967
17856	67.0167
17904	65.3567
17952	52.1533
18000	39.45
18048	29.6633
18096	25.74
18144	23.25
18192	29.4667
18240	31.1
18288	34.43
18336	43.27
18384	58.4967
18432	66.7967
18480	69.8333
18528	65.34
18576	59.8267
18624	54.6633
18672	48.4833
18720	36.78
18768	25.7333
18816	22.85
18864	23.2533
18912	26.52
18960	39.9433
19008	46.91
19056	55.18
19104	66.3367
19152	70.2667
19200	68.19
19248	67.18
19296	56.6833
19344	40.1433
19392	35.63
19440	27.3933
19488	21.8333
19536	25.6333
19584	34.1
19632	38.1467
19680	50.2367
19728	63.4
19776	65.32
19824	70.3367
19872	65.7533
19920	57.5
19968	53.2633
20016	43.34
20064	31.9467
20112	23.0433
20160	21.8967
20208	26.8833
20256	40.4
20304	49.6233
20352	54.2033
20400	60.6033
20448	70.48
20496	70.3733
20544	64.4
20592	57.86
20640	50.98
20688	33.4033
20736	27.24
20784	24.5
20832	21.37
20880	27.92
20928	39.5733
20976	44.11
21024	57.8
21072	69.9233
21120	71.2733
21168	71.8233
21216	68.5067
21264	56.32
21312	44.5467
21360	36.06
21408	22.7367
21456	20.7367
21504	21.3367
21552	24.0033
21600	33.13
21648	49.5767
21696	60.0033
21744	68.1033
21792	71.5267
21840	67.2567
21888	66.4133
21936	58.6667
21984	46.19
22032	30.52
22080	22.72
22128	20.3167
22176	22.7667
22224	35.0533
22272	42.7867
22320	47.7233
22368	63.3633
22416	71.0667
22464	72.3833
22512	70.1133
22560	58.4667
22608	44.85
22656	37.4767
22704	31.5333
22752	21.3933
22800	21.7633
22848	28.2767
22896	33.08
22944	46.69
22992	62.7967
23040	68.4667
23088	71.3667
23136	72.03
23184	62.7167
23232	57.1467
23280	47.38
23328	34.7367
23376	22.2667
23424	19.87
23472	21.06
23520	29.03
23568	47.5933
23616	55.12
23664	61.8867
23712	69.9133
23760	72.3567
23808	65.2667
23856	61.63
23904	49.24
23952	28.4667
24000	25.1733
24048	22.0433
24096	19.5467
24144	27.9733
24192	33.59
24240	48.14
24288	56.9233
24336	70.0967
24384	72.5633
24432	72.64
24480	66.3767
24528	42.6033
24576	45.2533
24624	38.1467
24672	23.9067
24720	19.0567
24768	23.8633
24816	26.79
24864	37.7633
24912	55.98
24960	63.7633
25008	67.7033
25056	73.6933
25104	69.7233
25152	62.7367
25200	56.5933
25248	41.8933
25296	27.4167
25344	22.1133
25392	18.4267
25440	21.1233
25488	35.1867
25536	43.25
25584	50.13
25632	64.6967
25680	73.43
25728	72.7967
25776	71.2333
25824	56.9833
25872	44.3933
25920	37.2567
25968	29.3633
26016	19.3067
26064	20.0067
26112	24.0133
26160	31.24
26208	44.0667
26256	60.67
26304	70.17
26352	73.3933
26400	72.9833
26448	63.2067
26496	55.0733
26544	49.04
26592	28.7633
26640	19.4167
26688	18.02
26736	19.7867
26784	28.8033
26832	47.1767
26880	55.78
26928	60.0567
26976	72.2533
27024	74.1033
27072	71.31
27120	62.9033
27168	53.2467
27216	35.3167
27264	30.0767
27312	20.5167
27360	18.3667
27408	27.99
27456	34.23
27504	41.83
27552	56.1933
27600	69.98
27648	75.01
27696	74.57
27744	68.0333
27792	52.5933
27840	46.7067
27888	38.8233
27936	28.61
27984	18.2167
28032	18.2867
28080	20.8067
28128	29.9533
28176	50.8267
28224	56.77
28272	63.4667
28320	74.1267
28368	73.1233
28416	67.7667
28464	64.3567
28512	53.2733
28560	32.6867
28608	20.1833
28656	17.9767
28704	18.2367
28752	30.2467
28800	34.7
28848	40.27
28896	53.44
28944	69.5133
28992	74.7267
29040	75.06
29088	71.4367
29136	53.75
29184	48.1567
29232	38.3633
29280	20.8333
29328	17.6533
29376	20.7767
29424	22.59
29472	34.04
29520	52.56
29568	69.07
29616	72.56
29664	75.0667
29712	68.1133
29760	63.2933
29808	56.2633
29856	44.6233
29904	25.3333
29952	18.33
30000	17.8033
30048	18.4167
30096	31.6133
30144	38.14
30192	53.25
30240	72.71
30288	73.0967
30336	75.0867
30384	73.3333
30432	65.9133
30480	44.9433
30528	27.8067
30576	25.0933
30624	16.6367
30672	19.5767
30720	20.86
30768	26.5
30816	43.02
30864	64.1667
30912	71.15
30960	73.66
31008	75.3533
31056	71.13
31104	64.6767
31152	49.0467
31200	28.5933
31248	24.7367
31296	20.14
31344	17.2433
31392	20.1233
31440	36.85
31488	55.74
31536	60.3633
31584	71.4433
31632	75.67
31680	75.2433
31728	73.5633
31776	64.2433
31824	40.55
31872	30.7867
31920	24.48
31968	19.6467
32016	18.74
32064	21.2967
32112	33.5267
32160	55.1733
32208	65.8067
32256	69.73
32304	74.0267
32352	75.3067
32400	63.8033
32448	45.6733
32496	40.2567
32544	28.9867
32592	17.1667
32640	17.2667
32688	16.93
32736	23.4267
32784	42.39
32832	52.8067
32880	62.2167
32928	63.84
32976	75.2967
33024	75.27
33072	68.2867
33120	53.37
33168	38.2967
33216	34.1967
33264	27.62
33312	20.4233
33360	19.1367
33408	32.4067
33456	35.5
33504	43.5867
33552	67.2733
33600	71.48
33648	72.93
33696	74.27
33744	63.2167
33792	57.3467
33840	52.3133
33888	38.1367
33936	24.1633
33984	18.16
34032	17.6733
34080	27.0167
34128	42.4933
34176	46.5233
34224	53.7867
34272	66.2
34320	75.5433
34368	69.8367
34416	68.89
34464	55.2767
34512	36.4967
34560	32.8767
34608	28.3867
34656	19.8767
34704	18.2833
34752	25.2
34800	32.95
34848	36.18
34896	59.9033
34944	66.5467
34992	69.9667
35040	75.2067
35088	66.88
35136	62.1133
35184	54.2133
35232	37.8667
35280	26.06
35328	17.04
35376	17.0633
35424	25.5367
35472	40.1533
35520	46.2733
35568	53.8533
35616	66.8867
35664	75.4133
35712	73.0633
35760	72.0967
35808	60.66
35856	40.56
35904	35.7633
35952	24.95
36000	16.7067
36048	19.7533
36096	24.7467
36144	30.97
36192	46.8333
36240	65.69
36288	75.2533
36336	75.66
36384	71.4933
36432	55.51
36480	54.5067
36528	50.5033
36576	33.78
36624	19.0233
36672	17.21
36720	17.3967
36768	22.1
36816	37.42
36864	50.2
36912	64.2767
36960	69.7633
37008	74.76
37056	72.2267
37104	69.6533
37152	55.5733
37200	36.6433
37248	23.17
37296	19.9833
37344	17.47
37392	23.1033
37440	27.4933
37488	42.12
37536	58.75
37584	72.36
37632	73.09
37680	74.98
37728	72.6133
37776	60.6367
37824	47.5167
37872	41.7567
37920	27.43
37968	17.43
38016	17.47
38064	21.6467
38112	33.74
38160	53.19
38208	54.4133
38256	65.16
38304	73.4667
38352	73.51
38400	66.06
38448	61.7167
38496	48.69
38544	29.0367
38592	25.02
38640	18.9667
38688	22.5233
38736	28.0933
38784	38.3933
38832	44.9633
38880	60.12
38928	71.1333
38976	74.6267
39024	72.7733
39072	61.84
39120	46.44
39168	42.4767
39216	32.8867
39264	21.5533
39312	18.27
39360	23.04
39408	26.3533
39456	41.9033
39504	56.5633
39552	66.21
39600	73.5833
39648	73.9233
39696	66.2833
39744	58.3833
39792	51.61
39840	37.6833
39888	24.3667
39936	18.9167
39984	17.9433
40032	23.5533
40080	39.54
40128	42.3233
40176	51.7133
40224	68.47
40272	74.6267
40320	73.1967
40368	69.6167
40416	59.78
40464	42.4667
40512	31.8
40560	25.5533
40608	19.5233
40656	22.4067
40704	25.3233
40752	32.6133
40800	49.4567
40848	67.22
40896	71.7367
40944	73.67
40992	72.9167
41040	64.09
41088	47.15
41136	44.2267
41184	31.7767
41232	18.3533
41280	18.2967
41328	18.8
41376	25.0733
41424	41.0933
41472	58.5933
41520	61.3067
41568	69.3733
41616	73.8033
41664	71.3633
41712	64.1667
41760	43.4967
41808	29.5833
41856	24.5467
41904	23.63
41952	18.9533
42000	30.56
42048	32.5267
42096	43.9167
42144	56.7967
42192	68.3333
42240	73.1933
42288	72.99
42336	66.8967
42384	48.8
42432	46.8733
42480	37.8267
42528	19.1
42576	19.06
42624	21.3667
42672	24.76
42720	37.55
42768	50.9467
42816	58.8067
42864	68.6933
42912	73.59
42960	67.62
43008	65.7367
43056	57.97
43104	49.5333
43152	29.9267
43200	21.38
43248	19.47
43296	21.7633
43344	30.82
43392	37.42
43440	49.2533
43488	67.43
43536	73.06
43584	72.9967
43632	70.37
43680	65.5933
43728	52.8367
43776	41.6833
43824	29.4833
43872	20.6067
43920	21.5467
43968	22
44016	26.3
44064	45.9033
44112	63.4867
44160	68.27
44208	71.48
44256	72.7067
44304	68.99
44352	61.15
44400	47.94
44448	42.11
44496	22.1433
44544	21.1267
44592	20.1267
44640	22.8833
44688	39.82
44736	46.0867
44784	54.26
44832	63.0733
44880	72.43
44928	69.61
44976	69.04
45024	58.1367
45072	35.4833
45120	31.44
45168	30.8267
45216	21.23
45264	21.4067
45312	31.0433
45360	35.9567
45408	44.59
45456	61.46
45504	66.34
45552	72.11
45600	69.9333
45648	58.7167
45696	51.6433
45744	49.7367
45792	31.2467
45840	22.28
45888	20.5433
45936	21.5133
45984	30.8733
46032	47.1633
46080	55.3033
46128	56.8167
46176	68.5867
46224	71.7167
46272	69.57
46320	59.7167
46368	55.77
46416	32.3233
46464	30.6
46512	24.7133
46560	20.8467
46608	27.95
46656	35.0833
46704	40.7833
46752	53.63
46800	65.51
46848	71.4667
46896	71.56
46944	68.0467
46992	53.32
47040	47.09
47088	40.29
47136	29.7667
47184	22.0533
47232	21.65
47280	24.4067
47328	32.8167
47376	51.8933
47424	56.5567
47472	60.9033
47520	69.61
47568	69.3033
47616	65.2267
47664	61.41
47712	52.26
47760	35.09
47808	24.79
47856	23.2633
47904	22.2267
47952	33.5467
48000	38.7267
48048	45.0267
48096	53.97
48144	67.35
48192	70.26
48240	70.0733
48288	67.0467
48336	49.2367
48384	46.3733
48432	37.6067
48480	28.2433
48528	22.3067
48576	23.67
48624	27.09
48672	37.2
48720	52.78
48768	64.6467
48816	66.2933
48864	69.95
48912	62.9767
48960	57.1233
49008	54.3
49056	37.6133
49104	26.73
49152	23.0333
49200	22.6367
49248	24.5733
49296	34.32
49344	44.0533
49392	51.36
49440	61.74
49488	69.79
49536	69.8367
49584	67.9767
49632	57.9
49680	39.8367
49728	39.9667
49776	30.1867
49824	26.5767
49872	23.99
49920	27.0433
49968	35.4267
50016	44.36
50064	59.4333
50112	62.7
50160	67.66
50208	68.4567
50256	64.5333
50304	54.4533
50352	48.9633
50400	37.9933
50448	27.6733
50496	24.2167
50544	23.79
50592	31.17
50640	44.1233
50688	44.7233
50736	51.7767
50784	63.4967
50832	68.8833
50880	68.1733
50928	65.9733
50976	60.2
51024	43.3367
51072	34.4433
51120	29.2833
51168	25.5133
51216	26.4233
51264	29.9167
51312	39.49
51360	50.4567
51408	62.5933
51456	66.55
51504	67.0867
51552	66.5833
51600	57.0833
51648	53.8233
51696	42.96
51744	35.76
51792	26.2867
51840	24.7067
51888	26.9
51936	31.8467
51984	44.0167
52032	47.7333
52080	60.46
52128	67.9733
52176	67.0267
52224	64.5
52272	61.5533
52320	54.9
52368	38.5333
52416	31.7033
52464	25.8067
52512	25.0967
52560	29.9233
52608	35.2433
52656	42.3567
52704	53.18
52752	66.05
52800	66.8767
52848	67.3333
52896	65.99
52944	56.4333
52992	44.9033
53040	41.9033
53088	34.55
53136	26.3433
53184	25.8467
53232	29.4433
53280	38.1267
53328	49.9
53376	55.36
53424	57.7967
53472	65.2667
53520	65.0933
53568	63.7333
53616	57.9467
53664	51.92
53712	39.7567
53760	33.5667
53808	26.65
53856	26.7633
53904	32.5467
53952	34.1867
54000	41.18
54048	55.93
54096	64.4467
54144	66.05
54192	65.9667
54240	63.2933
54288	54.4567
54336	48.52
54384	37.0033
54432	30.79
54480	26.87
54528	27.46
54576	29.57
54624	35.69
54672	51.9067
54720	56.6533
54768	58.5433
54816	64.8533
54864	64.74
54912	58.7733
54960	54.51
55008	47.18
55056	35.8067
55104	31.3067
55152	27.9167
55200	28.8633
55248	38.05
55296	39.7667
55344	46.26
55392	55.7567
55440	64.65
55488	64.9
55536	64.29
55584	61.2867
55632	49.93
55680	41.4833
55728	36.8633
55776	29.16
55824	28.14
55872	30.01
55920	34.38
55968	39.87
56016	54.84
56064	59.5933
56112	60.82
56160	64.4567
56208	58.86
56256	54.3033
56304	49.8467
56352	43.8733
56400	32.8433
56448	28.58
56496	28.62
56544	33.2433
56592	42.17
56640	48.3367
56688	49.3967
56736	57.0267
56784	63.8533
56832	63.4267
56880	61.6933
56928	57.4867
56976	47.23
57024	39.3
57072	31.95
57120	29.7467
57168	30.21
57216	32.2267
57264	38.82
57312	47.78
57360	57.8133
57408	58.2267
57456	61.2933
57504	63.25
57552	59.5767
57600	50.0267
57648	48.0233
57696	40.4933
57744	32.2467
57792	29.89
57840	30.5433
57888	31.39
57936	43.6633
57984	45.0767
58032	51.8667
58080	59.6533
58128	61.6567
58176	60.9733
58224	60.6467
58272	51.8033
58320	41.48
58368	36.56
58416	32.97
58464	30.4867
58512	33.3967
58560	38.1633
58608	45.0033
58656	50.1467
58704	58.4167
58752	60.7333
58800	61.98
58848	56.4667
58896	50.6133
58944	46.8533
58992	42.8767
59040	37.4567
59088	31.2467
59136	31.2833
59184	32.92
59232	38.69
59280	46.5767
59328	54.9867
59376	58.3633
59424	60.8767
59472	60.0533
59520	56.9367
59568	56.2233
59616	47.2167
59664	36.9133
59712	33.5367
59760	32.0633
59808	31.6933
59856	36.9933
59904	42.5133
59952	49.3167
60000	52.7433
60048	59.68
60096	60.78
60144	59.6767
60192	57.37
60240	48.84
60288	45.7133
60336	41.0167
60384	34.26
60432	32.23
60480	35.7867
60528	36.4767
60576	41.6033
60624	51.51
60672	57.5067
60720	59.0067
60768	60.2433
60816	56.0833
60864	54.4367
60912	47.81
60960	37.54
61008	32.6633
61056	32.57
61104	32.75
61152	35.81
61200	44.92
61248	53.1967
61296	52.8067
61344	58.4133
61392	59.4367
61440	59.1833
61488	54.7133
61536	49.4933
61584	37.15
61632	36.2767
61680	35.27
61728	33.9933
61776	37.2167
61824	40.4267
61872	44.4267
61920	50.9633
61968	55.48
62016	58.5767
62064	58.9967
62112	55.2633
62160	49.48
62208	48.69
62256	44.3033
62304	37.2233
62352	33.96
62400	34.6167
62448	36.0267
62496	38.4833
62544	48.02
62592	52.7867
62640	55.4067
62688	57.46
62736	58.0133
62784	56.36
62832	51.2
62880	44.7433
62928	38.4567
62976	35.65
63024	34.8533
63072	34.7667
63120	41.3133
63168	41.4167
63216	47.3867
63264	51.63
63312	56.7167
63360	58.0433
63408	56.1467
63456	54.5
63504	47.9533
63552	45.1733
63600	38.2167
63648	34.8333
63696	35.6967
63744	37.3033
63792	39.5567
63840	43.4367
63888	52.1967
63936	54.91
63984	57.44
64032	56.6
64080	52.4233
64128	49.4633
64176	44.8067
64224	38.6867
64272	35.4133
64320	35.5167
64368	36.16
64416	39.9767
64464	47.4433
64512	52.6867
64560	54.08
64608	56.4967
64656	56.25
64704	54.4967
64752	49.9433
64800	42.6667
64848	37.6333
64896	36.36
64944	36.04
64992	37.1433
65040	44.1733
65088	43.6967
65136	48.4167
65184	52.3367
65232	55.6733
65280	56.25
65328	54.28
65376	51.36
65424	44.1133
65472	43.21
65520	38.5133
65568	36.28
65616	38.7
65664	41.26
65712	42.3933
65760	45.3833
65808	52.1733
65856	54.39
65904	55.9
65952	54.99
66000	51.3033
66048	48.49
66096	45.4833
66144	39.7467
66192	36.7567
66240	37.3033
66288	37.3233
66336	39.39
66384	47.5567
66432	50.6833
66480	52.54
66528	53.7867
66576	55.48
66624	54.33
66672	50.8267
66720	46.9033
66768	40.2133
66816	40.06
66864	37.94
66912	37.0733
66960	41.2867
67008	41.8867
67056	44.54
67104	47.4533
67152	53.1667
67200	55.1933
67248	55.1
67296	53.8167
67344	50.8367
67392	48.03
67440	43.73
67488	42.24
67536	37.3433
67584	37.9267
67632	39.5867
67680	44.8
67728	51.2967
67776	51.5367
67824	52.2067
67872	53.8733
67920	54.5833
67968	51.9733
68016	48.0267
68064	45.3033
68112	40.1533
68160	39.5433
68208	37.9133
68256	38.07
68304	42.2133
68352	45.2133
68400	45.4633
68448	50.7933
