Path difference [nm]	Intensity [a.u.]
-21264	49.8833
-21216	49.4767
-21168	47.5567
-21120	47.1233
-21072	45.0033
-21024	44.9467
-20976	43.0233
-20928	42.88
-20880	44.07
-20832	44.92
-20784	46.3533
-20736	47.7167
-20688	51.2233
-20640	49.3667
-20592	49.7633
-20544	49.5367
-20496	48.8167
-20448	45.7567
-20400	43.77
-20352	41.9233
-20304	42.4667
-20256	41.1067
-20208	43.7767
-20160	44.9833
-20112	48.0833
-20064	49.6733
-20016	49.07
-19968	50.28
-19920	51.17
-19872	50.89
-19824	48.4067
-19776	47.4
-19728	44.0367
-19680	42.4033
-19632	42.0967
-19584	42.5767
-19536	42.61
-19488	43.2967
-19440	47.0833
-19392	48.12
-19344	50.7833
-19296	54.09
-19248	57.67
-19200	58.43
-19152	56.9833
-19104	57.02
-19056	54.12
-19008	51.4367
-18960	49.7267
-18912	50.92
-18864	49.61
-18816	47.4133
-18768	46.1
-18720	47.1933
-18672	49.2633
-18624	50.2167
-18576	50.2333
-18528	51.6
-18480	49.0467
-18432	47.2633
-18384	44.3433
-18336	44.3
-18288	42.9633
-18240	42.9467
-18192	43.3167
-18144	43.9867
-18096	45.86
-18048	46.46
-18000	50.0167
-17952	51.02
-17904	52.3533
-17856	51.06
-17808	47.3933
-17760	47.5667
-17712	44.3833
-17664	43.7133
-17616	42.3433
-17568	43.13
-17520	42.73
-17472	43.53
-17424	46.2233
-17376	48.78
-17328	49.75
-17280	50.1067
-17232	50.6767
-17184	51.3367
-17136	49.8867
-17088	47.1967
-17040	43.0967
-16992	41.7767
-16944	41.7267
-16896	41.8267
-16848	43.2733
-16800	43.43
-16752	46.3733
-16704	49.8833
-16656	51.2067
-16608	52.9533
-16560	52.2867
-16512	48.6867
-16464	48.74
-16416	45.7267
-16368	42.91
-16320	41.7167
-16272	41.07
-16224	41.8833
-16176	44.2367
-16128	45.56
-16080	48.6167
-16032	50.08
-15984	51.5767
-15936	51.9733
-15888	51.9567
-15840	48.8833
-15792	48.12
-15744	43.72
-15696	41.2033
-15648	42.73
-15600	41.5733
-15552	42.9867
-15504	44.8467
-15456	45.2333
-15408	46.18
-15360	47.5833
-15312	50.92
-15264	52.05
-15216	51.3333
-15168	48.63
-15120	44.91
-15072	41.9533
-15024	42.6833
-14976	41.54
-14928	41.33
-14880	43.6533
-14832	46.0067
-14784	48.77
-14736	52.1033
-14688	51.23
-14640	52.0567
-14592	52.05
-14544	50.3267
-14496	46.95
-14448	44.97
-14400	42.8967
-14352	41.39
-14304	42.2433
-14256	41.6333
-14208	42.88
-14160	48.41
-14112	48.88
-14064	50.77
-14016	52.7733
-13968	51.6467
-13920	52.4667
-13872	49.9967
-13824	45.1833
-13776	43.4567
-13728	40.7667
-13680	41.4933
-13632	40.8467
-13584	44.0667
-13536	44.91
-13488	45.8633
-13440	49.7433
-13392	52.9767
-13344	51.6967
-13296	52.3233
-13248	50.1667
-13200	46.6167
-13152	43.8933
-13104	44.7833
-13056	41.9367
-13008	42.2167
-12960	41.2367
-12912	45.0233
-12864	45.86
-12816	49.97
-12768	50.2533
-12720	51.4333
-12672	53.99
-12624	50.6367
-12576	49.4367
-12528	47.54
-12480	43.2333
-12432	42.04
-12384	41.2133
-12336	40.4
-12288	42.8133
-12240	45.29
-12192	46.5267
-12144	48.8833
-12096	51.45
-12048	52.5467
-12000	52.4033
-11952	52.2767
-11904	50.3133
-11856	45.7667
-11808	43.5767
-11760	40.5267
-11712	39.29
-11664	41.39
-11616	41.2
-11568	43.69
-11520	48.49
-11472	50.4567
-11424	51.81
-11376	54.4767
-11328	52.8467
-11280	51.16
-11232	51.0033
-11184	48.51
-11136	44.0567
-11088	41.2
-11040	39.15
-10992	39.6933
-10944	41.4033
-10896	45.1467
-10848	47.4833
-10800	49.4133
-10752	50.13
-10704	52.5333
-10656	52.0333
-10608	53.26
-10560	50.5767
-10512	45.83
-10464	44.4733
-10416	40.7567
-10368	41.2667
-10320	40.8767
-10272	41.0433
-10224	44.6767
-10176	46.3
-10128	50.5333
-10080	50.97
-10032	52.85
-9984	52.61
-9936	49.5467
-9888	47.7833
-9840	44.3767
-9792	41.72
-9744	40.47
-9696	39.67
-9648	41.62
-9600	44.0133
-9552	47.33
-9504	49.79
-9456	49.56
-9408	53.6433
-9360	54.19
-9312	51.68
-9264	49.6333
-9216	47.7833
-9168	41.3367
-9120	41.02
-9072	38.5667
-9024	40.8567
-8976	42.3767
-8928	42.66
-8880	46.98
-8832	52.7533
-8784	53.67
-8736	53.6
-8688	53.6667
-8640	51.25
-8592	46.7267
-8544	44.4867
-8496	42.9267
-8448	40.2567
-8400	39.0467
-8352	40.94
-8304	42.88
-8256	44.9033
-8208	49.6767
-8160	50.7333
-8112	52.5533
-8064	52.8267
-8016	52.1667
-7968	49.2967
-7920	46.57
-7872	42.5367
-7824	40.8867
-7776	39.39
-7728	39.26
-7680	43.0933
-7632	46.85
-7584	48.5
-7536	48.9833
-7488	52.91
-7440	53.6833
-7392	53.0167
-7344	51.4267
-7296	47.02
-7248	42.83
-7200	40.2367
-7152	40.0767
-7104	38.87
-7056	41.71
-7008	41.8067
-6960	44.89
-6912	48.48
-6864	52.79
-6816	53.57
-6768	53.4267
-6720	50.7333
-6672	48.3567
-6624	44.9033
-6576	43.1333
-6528	40.3433
-6480	38.9833
-6432	39.54
-6384	40.0067
-6336	44.7933
-6288	48.12
-6240	49.8133
-6192	51.9767
-6144	52.7967
-6096	52.87
-6048	51.0733
-6000	47.3233
-5952	45.7767
-5904	39.5967
-5856	39.6767
-5808	39.1333
-5760	39.65
-5712	44.15
-5664	46.8267
-5616	49.1333
-5568	52.1767
-5520	54.47
-5472	54.1267
-5424	53.82
-5376	51.1267
-5328	45.9267
-5280	42.7267
-5232	40.01
-5184	38.12
-5136	40.4333
-5088	41.5967
-5040	43.3233
-4992	48.29
-4944	51.22
-4896	52.4967
-4848	54.0367
-4800	55.1067
-4752	52.1033
-4704	48.62
-4656	46.5533
-4608	41.9833
-4560	39.82
-4512	38.4267
-4464	38.4433
-4416	40.0967
-4368	43.7067
-4320	46.6967
-4272	48.2133
-4224	54.3667
-4176	54.6433
-4128	52.2133
-4080	52.49
-4032	47.0133
-3984	43.8833
-3936	42.71
-3888	39.5233
-3840	39.08
-3792	41.0767
-3744	43.0667
-3696	44.85
-3648	50.22
-3600	53.4967
-3552	54.77
-3504	54.8633
-3456	54.06
-3408	49.12
-3360	46.8267
-3312	43.3767
-3264	40.6867
-3216	38.11
-3168	40.2367
-3120	40.7633
-3072	44.1067
-3024	47.65
-2976	49.11
-2928	53.5867
-2880	54.9333
-2832	54.85
-2784	53.21
-2736	49.4167
-2688	46.3767
-2640	41.2633
-2592	41.0333
-2544	37.7933
-2496	37.79
-2448	40.3333
-2400	41.4967
-2352	46.58
-2304	50.1333
-2256	54.39
-2208	55.5067
-2160	55.18
-2112	53.1367
-2064	49.5033
-2016	47.7767
-1968	45.1033
-1920	41.0867
-1872	38.6833
-1824	39.26
-1776	39.7633
-1728	44.7033
-1680	48.5067
-1632	51.7967
-1584	53.69
-1536	56.33
-1488	54.2433
-1440	52.64
-1392	48.73
-1344	45.4533
-1296	42.72
-1248	38.4667
-1200	38.6067
-1152	39.6633
-1104	44.0667
-1056	42.84
-1008	48.1967
-960	52.2267
-912	53.9267
-864	56.0067
-816	54.9567
-768	51.6633
-720	47.06
-672	43.1233
-624	40.7533
-576	37.2767
-528	36.9133
-480	36.2267
-432	40.5667
-384	45.1733
-336	52.7567
-288	54.4533
-240	55.1267
-192	53.9933
-144	52.6567
-96	49.7
-48	47.6667
0	39.3133
48	39.84
96	37.6467
144	38.3767
192	41.5733
240	46.0467
288	50.4967
336	50.85
384	53.66
432	54.9667
480	53.1267
528	51.97
576	48.3
624	41.27
672	39.5467
720	38.1833
768	37.3267
816	40.5433
864	41.8233
912	47.0433
960	52.43
1008	55.5733
1056	55.9067
1104	56.0067
1152	53.5367
1200	48.2833
1248	43.2033
1296	41.42
1344	38.9967
1392	35.0033
1440	36.1133
1488	40.54
1536	43.0433
1584	48.55
1632	52.28
1680	55.4767
1728	57.12
1776	54.7267
1824	53.8
1872	50.8967
1920	45.1767
1968	39.8567
2016	38.2467
2064	37.9867
2112	38.98
2160	42.0133
2208	46.4367
2256	47.5267
2304	52.6733
2352	55.2367
2400	57.6
2448	54.2333
2496	49.6933
2544	44.73
2592	40.0233
2640	39.04
2688	36.5
2736	39.3167
2784	38.0733
2832	42.35
2880	46.8633
2928	53.7033
2976	56.69
3024	56.71
3072	56.0033
3120	50.28
3168	46.8
3216	43.1967
3264	41.7467
3312	37.6233
3360	35.3933
3408	37.0567
3456	43.7933
3504	49.0267
3552	50.69
3600	55.91
3648	55.9633
3696	56.7233
3744	56.92
3792	54.9233
3840	48.0533
3888	40.4633
3936	37.38
3984	37.6267
4032	36.4433
4080	41.8533
4128	39.9433
4176	44.3233
4224	50.4733
4272	55.9133
4320	56.7433
4368	56.6967
4416	52.39
4464	48.19
4512	43.7933
4560	43.5767
4608	39.8533
4656	36.39
4704	36.58
4752	39.0867
4800	39.11
4848	44.9433
4896	49.8367
4944	53.6033
4992	56.7667
5040	54.69
5088	51.7133
5136	52.4967
5184	48.8233
5232	40.92
5280	37.8967
5328	36.3833
5376	37.7067
5424	41.59
5472	43.8667
5520	47.15
5568	52.75
5616	56.3967
5664	57.3433
5712	55.4833
5760	53.06
5808	47.29
5856	46.4033
5904	41.16
5952	37.73
6000	36.8833
6048	38.9333
6096	44.5367
6144	42.3533
6192	49.7967
6240	54.09
6288	57.13
6336	56.81
6384	51.6467
6432	48.8067
6480	42
6528	38.48
6576	37.1233
6624	37.56
6672	36.1167
6720	39.55
6768	49.3967
6816	51.5867
6864	49.4233
6912	57.0633
6960	55.3967
7008	58.0067
7056	51.1233
7104	44.99
7152	38.46
7200	38.4433
7248	36.28
7296	37.3567
7344	40.14
7392	46.5967
7440	49.0567
7488	55.21
7536	54.61
7584	57.56
7632	57.8433
7680	55.17
7728	44.88
7776	42.8267
7824	37.66
7872	34.89
7920	35.51
7968	37.66
8016	39.4233
8064	47.16
8112	55.0933
8160	57.4333
8208	57.41
8256	57.7933
8304	55.7267
8352	49.81
8400	47.2967
8448	38.9533
8496	34.6967
8544	33.3933
8592	34.7
8640	37.8833
8688	44.7733
8736	49.41
8784	54.3133
8832	56.7733
8880	59.1033
8928	58.0467
8976	55.6667
9024	49.2433
9072	40.8
9120	38.13
9168	35.1533
9216	34.7733
9264	37.6
9312	43.16
9360	45.71
9408	50.9533
9456	57.8467
9504	59.2
9552	57.74
9600	55.4133
9648	50.4633
9696	46.8467
9744	42.7133
9792	34.3033
9840	34.4333
9888	35.1867
9936	39.54
9984	42.1067
10032	48.97
10080	53.74
10128	56.47
10176	58.3933
10224	56.1167
10272	51.5267
10320	45.8167
10368	42.3967
10416	35.7733
10464	34.2733
10512	33.29
10560	37.9167
10608	45.2467
10656	47.0167
10704	51.7667
10752	58.8067
10800	60.0267
10848	59.0467
10896	54.2567
10944	53.4933
10992	43.9867
11040	39.37
11088	34.31
11136	34.3133
11184	38.0767
11232	38.49
11280	43.25
11328	50.4767
11376	58.26
11424	59.17
11472	58.8533
11520	58.2033
11568	51.5467
11616	48.22
11664	40.1233
11712	33.7967
11760	33.0733
11808	33.8533
11856	36.23
11904	41.0467
11952	51.1367
12000	55.7967
12048	58.6233
12096	59.5367
12144	57.1833
12192	53.6767
12240	49.7433
12288	42.3033
12336	36.56
12384	33.9733
12432	34.27
12480	35.2667
12528	42.4067
12576	47.8633
12624	53.1133
12672	57.7433
12720	61.2267
12768	58.8267
12816	58.65
12864	52.0733
12912	42.1067
12960	38.3867
13008	34.9633
13056	32.76
13104	34.06
13152	39.3233
13200	42.1467
13248	50.22
13296	57.4233
13344	57.94
13392	60.46
13440	59.9767
13488	53.19
13536	47.1867
13584	43.13
13632	37.95
13680	34.2933
13728	33.98
13776	35.7867
13824	38.3567
13872	48.5233
13920	53.4233
13968	58.1933
14016	57.8
14064	59.1
14112	56.1733
14160	53.7967
14208	47.12
14256	39.0567
14304	36.8933
14352	35.6767
14400	33.91
14448	37.06
14496	42.33
14544	48.54
14592	54.2567
14640	58.8533
14688	59.6667
14736	60.1467
14784	59.02
14832	50.29
14880	46.7167
14928	43.44
14976	36.34
15024	33.2733
15072	35.0367
15120	37.9033
15168	44.0867
15216	50.8467
15264	54.1
15312	56.83
15360	62.83
15408	60.2767
15456	55.88
15504	52.4167
15552	47.0333
15600	37.4633
15648	33.3667
15696	32.55
15744	33.1867
15792	38.8167
15840	41.8133
15888	47.72
15936	55.7167
15984	61.9167
16032	61.5333
16080	59.6133
16128	54.4533
16176	46.01
16224	41.8967
16272	38.94
16320	32.9733
16368	33.3
16416	33.86
16464	36.5
16512	43.7167
16560	53.09
16608	56.86
16656	62.65
16704	61.7833
16752	59.1067
16800	53.5567
16848	50.3167
16896	44.8467
16944	34.59
16992	32.7667
17040	32.39
17088	36.4
17136	42.87
17184	45.6033
17232	51.63
17280	57.9667
17328	62.1867
17376	60.9267
17424	57.76
17472	54.14
17520	47.04
17568	37.41
17616	34.3267
17664	32.66
17712	32.1767
17760	33.7267
17808	37.5867
17856	46.33
17904	55.8867
17952	58.1
18000	62.99
18048	63.0067
18096	57.79
18144	53.5333
18192	49.05
18240	40.0133
18288	32.2833
18336	30.7567
18384	31.78
18432	35.6867
18480	44.7967
18528	51.1533
18576	60.1333
18624	61.64
18672	62.9967
18720	59.8067
18768	56.4967
18816	46.4
18864	36.48
18912	35.16
18960	31.2967
19008	31.7833
19056	34.62
19104	39.98
19152	46.7367
19200	56.7233
19248	63.69
19296	62.49
19344	61.47
19392	59.03
19440	47.9033
19488	44.72
19536	36.7067
19584	32.7533
19632	29.5333
19680	30.8867
19728	35.4033
19776	44.59
19824	51.7233
19872	57.34
19920	59.3967
19968	63.2867
20016	61.25
20064	57.1967
20112	51.3167
20160	42.8333
20208	34.7533
20256	30.3233
20304	29.4867
20352	31.66
20400	39.4267
20448	45.79
20496	50.3633
20544	57.48
20592	62.6067
20640	63.3167
20688	60.4333
20736	56.5
20784	43.6733
20832	42.08
20880	34.3433
20928	30.53
20976	30.62
21024	34.21
21072	39.5833
21120	44.8433
21168	56.43
21216	60.7133
21264	62.3967
21312	63.6533
21360	56.5033
21408	50.7267
21456	47.3267
21504	39.7967
21552	30.9733
21600	29.25
21648	31.34
21696	35.2233
21744	45.74
21792	49.02
21840	54.9467
21888	61.9333
21936	63.9267
21984	61.8767
22032	57.5167
22080	48.4067
22128	37.63
22176	35.6767
22224	29.9267
22272	30.1033
22320	34.07
22368	42.04
22416	46.98
22464	51.3567
22512	60.9233
22560	64.8933
22608	65.6467
22656	60.62
22704	52.2233
22752	43.62
22800	38.22
22848	31.42
22896	27.9767
22944	27.0367
22992	30.8933
23040	42.19
23088	53.1133
23136	59.1867
23184	61.4833
23232	64.6633
23280	60.9233
23328	61.6467
23376	52.9
23424	42.2067
23472	30.8067
23520	29.61
23568	26.98
23616	31.2933
23664	38.4567
23712	46.23
23760	56.18
23808	62.0267
23856	65.8467
23904	64.39
23952	62.8667
24000	58.3933
24048	45.3067
24096	37.4167
24144	32.2633
24192	27.4333
24240	29.9233
24288	34.67
24336	37.35
24384	51.39
24432	59.2633
24480	63.5633
24528	65.6467
24576	63.2267
24624	55.86
24672	50.2467
24720	44.1933
24768	34.09
24816	27.55
24864	30.65
24912	31.8533
24960	40.97
25008	52.25
25056	57.84
25104	62.7667
25152	66.19
25200	62.6733
25248	60.6767
25296	52.8467
25344	39.78
25392	30.77
25440	28.4167
25488	28.91
25536	32.7
25584	43.7667
25632	49.6133
25680	57.1033
25728	62.7233
25776	67.1933
25824	65.72
25872	61.6867
25920	48.3
25968	36.76
26016	31.7
26064	29.49
26112	27.04
26160	28.4233
26208	30.7867
26256	35.2833
26304	47.2067
26352	60.6533
26400	64.54
26448	66.7933
26496	66.09
26544	60.77
26592	56.42
26640	47.7533
26688	37.24
26736	28.2567
26784	27.25
26832	29.4433
26880	37.5033
26928	47.5
26976	48.2733
27024	55.5567
27072	66.3533
27120	66.4867
27168	65.21
27216	59.6533
27264	52.0233
27312	39.58
27360	35.49
27408	29.7867
27456	27.31
27504	30.22
27552	34.73
27600	45.2533
27648	58.2167
27696	62.6867
27744	65.26
27792	68.0433
27840	62.49
27888	51.2533
27936	43.6967
27984	35.62
28032	29.4833
28080	26.1633
28128	28.04
28176	34.23
28224	46.1867
28272	57.26
28320	62.5933
28368	66.0767
28416	64.8967
28464	61.78
28512	52.2433
28560	46.7367
28608	32.4767
28656	26.6467
28704	26.5
28752	27.0433
28800	35.4433
28848	46.35
28896	54.3867
28944	60.5767
28992	66.19
29040	66.1033
29088	62.3367
29136	59.9733
29184	51.04
29232	34.2833
29280	31.47
29328	27.01
29376	26.93
29424	33.7067
29472	39.8667
29520	46.5767
29568	58.6667
29616	65.9233
29664	68.2133
29712	67.9767
29760	59.99
29808	46.33
29856	40.82
29904	34.6633
29952	27.0633
30000	26.52
30048	28.1467
30096	31.05
30144	41.1133
30192	54.08
30240	62.2033
30288	66.5867
30336	66.47
30384	65.7433
30432	59.3933
30480	53.4733
30528	41.62
30576	30.3533
30624	26.7533
30672	27.66
30720	32.0567
30768	40.3867
30816	44.4367
30864	50.6333
30912	63.16
30960	67.8367
31008	66.1367
31056	61.7633
31104	58.4133
31152	46.4233
31200	39.0767
31248	34.7767
31296	27.17
31344	29.9833
31392	36.37
31440	40.3133
31488	52.07
31536	59.49
31584	61.07
31632	64.5667
31680	67.04
31728	58.1733
31776	52.9233
31824	43.3867
31872	33.4167
31920	26.8733
31968	26.1267
32016	26.4367
32064	32.7767
32112	43.73
32160	58.5067
32208	63.7967
32256	66.3333
32304	67.2533
32352	66.2867
32400	61.12
32448	51.3367
32496	36.1167
32544	30.41
32592	28.6367
32640	25.8933
32688	30.72
32736	34.14
32784	42.9267
32832	58.5233
32880	64.6733
32928	66.7133
32976	66.3467
33024	65.0033
33072	56.9467
33120	48.1
33168	35.6233
33216	27.9333
33264	28.3333
33312	28.31
33360	30.1967
33408	39.33
33456	53.06
33504	60.3533
33552	63.4467
33600	66.0733
33648	64.34
33696	60.43
33744	48.9
33792	35.9367
33840	29.7167
33888	28.6967
33936	28.1933
33984	29.51
34032	35.7267
34080	46.5167
34128	57.0867
34176	64.1933
34224	65.4133
34272	65.5833
34320	64.3867
34368	57.52
34416	43.03
34464	35.26
34512	37.41
34560	29.8133
34608	27.6067
34656	30.1167
34704	43.2967
34752	54.02
34800	61.4733
34848	60.46
34896	64.0067
34944	66.12
34992	58.21
35040	50.3133
35088	41.4533
35136	42.77
35184	30.82
35232	29.7133
35280	29.6133
35328	36.3667
35376	48.3
35424	47.2567
35472	52.4033
35520	59.9933
35568	64.3267
35616	60.9333
35664	57.6033
35712	46.9267
35760	40.24
35808	36.3833
35856	34.4233
35904	29.7167
35952	31.7433
36000	41.47
36048	46.3067
36096	51.2067
36144	57.98
36192	61.9133
36240	65.5567
36288	60.25
36336	52.7967
36384	48.5567
36432	47.6533
36480	36.4067
36528	28.82
36576	28.7
36624	33.1267
36672	42.91
36720	48.21
36768	47.95
36816	55.17
36864	64.24
36912	62.4333
36960	62.1667
37008	59.93
37056	52.71
37104	42.94
37152	33.3833
37200	29.57
37248	33.7
37296	33.5067
37344	36.3333
37392	39.9467
37440	53.9233
37488	64.2367
37536	65.0067
37584	64.67
37632	60.0567
37680	55.6267
37728	51.2833
37776	37.5067
37824	31.0167
37872	29.57
37920	28.5467
37968	31.84
38016	40.9333
38064	55.1433
38112	58.9967
38160	62.7967
38208	65.4533
38256	60.36
38304	61.1067
38352	55.28
38400	39.9
38448	33.7267
38496	31.0067
38544	28.5667
38592	29.22
38640	36.9333
38688	44.2433
38736	54.3033
38784	59.9233
38832	63.23
38880	64.6333
38928	64.7433
38976	58.23
39024	44.2867
39072	37.3633
39120	34.7133
39168	29.0867
39216	30.0333
39264	31.33
39312	36.4833
39360	48.1033
39408	59.4933
39456	62.0267
39504	62.9733
39552	63.0133
39600	59.93
39648	56.24
39696	48.07
39744	37.54
39792	32.6367
39840	29.92
39888	28.7767
39936	35.33
39984	46.6967
40032	54.1533
40080	56.3867
40128	62.5567
40176	63.99
40224	64.5467
40272	60.5533
40320	47.1733
40368	37.05
40416	33.2433
40464	32.0133
40512	29.5167
40560	33.3733
40608	40.5767
40656	48.5733
40704	53.9233
40752	60.7333
40800	63.7333
40848	64.5267
40896	58.1867
40944	51.18
40992	44.7833
41040	38.9467
41088	33.4067
41136	30.6067
41184	30.6567
41232	33.8067
41280	45.48
41328	53.5033
41376	58.4267
41424	60.8867
41472	62.46
41520	59.6533
41568	55.7467
41616	47.75
41664	41.9433
41712	35.6033
41760	31.21
41808	29.2833
41856	35.2
41904	42.0933
41952	49.01
42000	53.49
42048	60.09
42096	63.3433
42144	61.8567
42192	61.9667
42240	51.7
42288	42.3067
42336	36.9767
42384	33.0967
42432	31.2433
42480	34.9167
42528	37.4933
42576	41.9967
42624	51.76
42672	59.76
42720	62.9033
42768	62.8633
42816	60.1967
42864	53.7267
42912	46.7633
42960	40.8867
43008	33.36
43056	32.03
43104	31.2967
43152	32.3667
43200	41.6933
43248	51.6433
43296	56.3767
43344	59.09
43392	61.2133
43440	60.1867
43488	55.2233
43536	55.6633
43584	45.8667
43632	38.5667
43680	33.68
43728	31.0233
43776	34.8733
43824	41.4933
43872	44.31
43920	47.3467
43968	56.51
44016	62.0433
44064	61.5867
44112	57.1133
44160	50.95
44208	41.2467
44256	39.5033
44304	38.4333
44352	32.7633
44400	35.6233
44448	36.9533
44496	43.4667
44544	47.69
44592	58.8867
44640	59.8167
44688	60.5367
44736	60.2867
44784	53.42
44832	45.8367
44880	42.3
44928	36.0267
44976	32.5767
45024	32.5667
45072	35.5667
45120	40.36
45168	47.8533
45216	51.9233
45264	57.5367
45312	61.4367
45360	60.24
45408	58.1367
45456	53.1733
45504	47.2867
45552	38.1433
45600	35.5433
45648	32.5333
45696	33.9567
45744	39.24
45792	44.1933
45840	50.5833
